#
#   version : pre1.0-239-gcf65bfc
#    num_fr : 64
#    num_tr : 0
#      time : 20180521 04:31:21.700 UTC
#      unix : 1526877081.700746
#       ntp : LOCK -6222 5744 3
#       seq : 256485
#       mul : 0 [A]
#      site : 02
#    latlon : 43.1928 -81.3157 324.0
#      text : Elginfield_Wide_G4-18-C
#    stream : KT
#     plate : metal_20180201_02_pre1.0-177-g5127e76
#      geom : 900 900
#    filter : 0
#
#  fr    time    sum     seq       cx       cy      th      phi     lsp    mag  flag   bak    max
   80  -0.075  60107  256479  398.540  161.825  44.409   74.968 -12.627   3.40  0000 1026.3 2397.0
   83  -0.038 106617  256482  393.893  169.903  44.178   75.340 -13.055   2.98  0000 1064.5 2778.0
   84  -0.025  97047  256483  397.508  171.283  44.300   75.450 -13.043   2.99  0000 1078.0 2533.0
   85  -0.013 121115  256484  401.260  173.151  44.423   75.586 -13.144   2.89  0000 1093.9 3147.0
   86   0.000 126550  256485  404.280  173.408  44.531   75.631 -13.231   2.80  0000 1101.9 3825.0
   87   0.013 126524  256486  409.389  175.326  44.703   75.783 -13.212   2.82  0000 1119.8 3579.0
   88   0.025 125120  256487  411.936  174.674  44.801   75.775 -13.240   2.79  0000 1116.9 2999.0
   89   0.038  69623  256488  417.284  176.773  44.981   75.938 -12.260   3.77  0000 1137.2 2774.0
   90   0.050  71519  256489  418.519  177.565  45.021   75.991 -12.281   3.75  0000 1143.3 3460.0
   91   0.063  82084  256490  424.098  179.273  45.212   76.134 -12.413   3.62  0000 1158.2 3412.0
   92   0.075  84478  256491  427.402  181.093  45.320   76.260 -12.412   3.62  0000 1161.7 3171.0
   93   0.088 109263  256492  432.948  181.795  45.518   76.350 -12.820   3.21  0000 1155.5 3455.0
   94   0.100  70570  256493  435.367  183.654  45.594   76.468 -12.031   4.00  0000 1161.7 3676.0
   95   0.113  97343  256494  439.611  183.344  45.752   76.492 -12.580   3.45  0000 1157.2 3313.0
   96   0.125  83277  256495  444.768  184.146  45.935   76.582 -12.433   3.60  0000 1156.5 3273.0
   97   0.138  98736  256496  445.874  186.264  45.961   76.700 -12.568   3.46  0000 1168.3 3344.0
   98   0.150  86947  256497  450.255  187.477  46.113   76.802 -12.284   3.75  0000 1165.7 3277.0
   99   0.163  79736  256498  453.941  188.294  46.243   76.878 -12.319   3.71  0000 1173.0 3224.0
  100   0.175  85572  256499  457.797  189.388  46.377   76.968 -12.613   3.42  0000 1182.0 3563.0
  101   0.188  99329  256500  460.719  190.434  46.477   77.047 -12.605   3.43  0000 1203.9 3845.0
  102   0.200  94635  256501  464.529  190.806  46.614   77.100 -12.497   3.53  0000 1220.6 3228.0
  103   0.213  98041  256502  468.601  193.022  46.749   77.248 -12.596   3.43  0000 1238.5 3533.0
  104   0.225  99334  256503  472.834  193.235  46.903   77.296 -12.678   3.35  0000 1235.4 3955.0
  105   0.238  81882  256504  475.386  195.407  46.983   77.427 -12.553   3.48  0000 1241.0 3689.0
  106   0.250  96835  256505  480.212  196.572  47.152   77.527 -12.614   3.42  0000 1239.3 4445.0
  107   0.263 106185  256506  483.410  196.917  47.268   77.571 -12.773   3.26  0000 1230.9 3917.0
  108   0.275 105289  256507  487.834  197.641  47.426   77.645 -12.757   3.27  0000 1215.8 3361.0
  109   0.288  98775  256508  490.557  198.988  47.517   77.735 -12.689   3.34  0000 1218.3 4018.0
  110   0.300  87960  256509  494.880  200.379  47.667   77.840 -12.373   3.66  0000 1232.1 3866.0
  111   0.313 104733  256510  497.332  201.763  47.749   77.929 -12.705   3.33  0000 1239.0 3834.0
  112   0.326  99615  256511  499.633  203.643  47.822   78.041 -12.736   3.29  0000 1246.6 3662.0
  113   0.338 102039  256512  505.356  204.557  48.027   78.132 -12.661   3.37  0000 1243.2 4076.0
  114   0.351  81102  256513  509.537  206.299  48.170   78.252 -12.460   3.57  0000 1240.6 3946.0
  115   0.363  87461  256514  514.225  206.791  48.340   78.313 -12.535   3.50  0000 1226.7 4007.0
  116   0.376  94383  256515  516.473  207.102  48.421   78.346 -12.542   3.49  0000 1223.6 4321.0
  117   0.388  86371  256516  520.436  207.776  48.563   78.410 -12.465   3.56  0000 1216.4 3236.0
  118   0.401  93452  256517  522.512  209.997  48.626   78.535 -12.670   3.36  0000 1220.2 3978.0
  119   0.413  85446  256518  527.542  210.809  48.806   78.613 -12.452   3.58  0000 1218.0 4608.0
  120   0.426 107382  256519  532.106  209.898  48.980   78.603 -12.738   3.29  0000 1209.3 3630.0
  121   0.438  99368  256520  535.162  212.689  49.076   78.762 -12.446   3.58  0000 1216.0 4069.0
  122   0.451  89077  256521  536.794  213.446  49.132   78.811 -12.566   3.46  0000 1219.6 3220.0
  123   0.463  94785  256522  540.874  214.434  49.277   78.889 -12.550   3.48  0000 1222.9 3808.0
  124   0.476  88076  256523  544.709  215.754  49.410   78.981 -12.301   3.73  0000 1223.8 3652.0
  125   0.488 102273  256524  549.028  216.219  49.567   79.035 -12.674   3.36  0000 1219.7 4043.0
  126   0.501  95895  256525  553.411  218.773  49.714   79.190 -12.574   3.46  0000 1221.2 3969.0
  127   0.513  98636  256526  556.746  218.809  49.837   79.215 -12.715   3.32  0000 1217.2 3401.0
  128   0.526  96757  256527  560.220  220.970  49.953   79.344 -12.530   3.50  0000 1220.7 4953.0
  129   0.538  84548  256528  562.989  220.947  50.056   79.362 -12.486   3.54  0000 1219.8 3832.0
  130   0.551  77154  256529  564.388  222.202  50.100   79.432 -12.568   3.46  0000 1228.2 3391.0
  131   0.563  77574  256530  571.336  223.479  50.350   79.541 -12.281   3.75  0000 1234.7 3307.0
  132   0.576 100311  256531  574.433  225.596  50.453   79.664 -12.430   3.60  0000 1248.8 3825.0
  133   0.588 106245  256532  578.718  225.596  50.611   79.692 -12.702   3.33  0000 1253.8 4111.0
  134   0.601  85295  256533  579.541  226.418  50.637   79.737 -12.631   3.40  0000 1258.8 3863.0
  135   0.613  83261  256534  585.282  228.004  50.841   79.851 -12.258   3.77  0000 1267.9 3487.0
  136   0.626  93823  256535  587.306  228.100  50.915   79.868 -12.455   3.58  0000 1269.4 3817.0
  137   0.639  96987  256536  592.106  229.817  51.083   79.981 -12.538   3.49  0000 1271.3 3964.0
  138   0.651  75487  256537  595.038  232.099  51.180   80.108 -12.018   4.01  0000 1282.8 3220.0
  139   0.664  83496  256538  598.349  232.751  51.299   80.160 -12.181   3.85  0000 1278.8 4086.0
  140   0.676  92237  256539  599.950  232.046  51.362   80.137 -12.707   3.32  0000 1278.4 3643.0
  141   0.689  89692  256540  605.665  234.458  51.561   80.287 -12.484   3.55  0000 1283.3 3811.0
  142   0.701 101702  256541  608.280  234.521  51.657   80.306 -12.434   3.60  0000 1282.7 3985.0
  143   0.714  92824  256542  610.464  236.189  51.729   80.398 -12.433   3.60  0000 1288.9 3445.0
  144   0.726  67638  256543  613.678  235.934  51.849   80.406 -12.090   3.94  0000 1281.8 3427.0
  145   0.739  82258  256544  617.253  236.954  51.976   80.475 -12.438   3.59  0000 1278.5 3480.0
